LabVIEW Measurement	
Writer_Version	2
Reader_Version	2
Separator	Tab
Decimal_Separator	.
Multi_Headings	No
X_Columns	One
Time_Pref	Absolute
Operator	Mark
Date	2019/11/20
Time	18:55:06.5849995613098144531
***End_of_Header***	
	
Channels	4				
Samples	1	1	1	1	
Date	2019/11/20	2019/11/20	2019/11/20	2019/11/20	
Time	18:55:06.6509995460510253906	18:55:06.5849995613098144531	18:55:06.6310000419616699219	18:55:06.6189999580383300781	
X_Dimension	Time	Time	Time	Time	
X0	0.0000000000000000E+0	0.0000000000000000E+0	0.0000000000000000E+0	0.0000000000000000E+0	
Delta_X	1.000000	1.000000	1.000000	1.000000	
***End_of_Header***					
X_Value	FieldPoint\FP @ COM1\cFP-AI-110 @1\Channel 0 (Scaled)	FieldPoint\FP @ COM1\cFP-AI-110 @1\Channel 1 (Scaled)	FieldPoint\FP @ COM1\cFP-AI-110 @1\Channel 2 (Scaled)	FieldPoint\FP @ COM1\cFP-AI-110 @1\Channel 3 (Scaled)	Comment
0.000000	1.495531	0.736022	0.642393	0.439582
2.937000	1.490770	0.736022	0.642393	0.439582
5.933001	1.492674	0.736022	0.642393	0.439582
8.935000	1.492357	0.736022	0.642393	0.439582
11.935000	1.485692	0.736022	0.642393	0.439582
14.935000	1.496165	0.736022	0.642393	0.439582
17.943001	1.492991	0.736022	0.642393	0.439582
20.935001	1.490770	0.736022	0.642393	0.439582
23.940001	1.492991	0.736022	0.642393	0.439582
26.940001	1.484422	0.736022	0.642393	0.439582
29.935000	1.497118	0.736022	0.642393	0.439582
32.937000	1.485692	0.736022	0.642393	0.439582
35.940001	1.488548	0.736022	0.642393	0.439582
38.937000	1.497118	0.736022	0.642393	0.439582
41.940001	1.491722	0.736022	0.642393	0.439582
44.940001	1.500926	0.736022	0.642393	0.439582
47.938000	1.490135	0.736022	0.642393	0.439582
50.937000	1.498387	0.736022	0.642393	0.439582
53.967000	1.492991	0.736022	0.642393	0.439582
56.938000	1.488865	0.736022	0.642075	0.439582
59.942000	1.492674	0.736022	0.642393	0.439582
62.947001	1.495848	0.736022	0.642075	0.439582
65.943001	1.492991	0.736022	0.642393	0.439582
68.952001	1.491722	0.736022	0.642393	0.439582
72.014001	1.486644	0.736022	0.642393	0.439582
74.944000	1.504417	0.736022	0.642393	0.439582
77.936000	1.484422	0.736022	0.642393	0.439582
80.957000	1.493626	0.736022	0.642393	0.439582
83.940001	1.496165	0.736022	0.642393	0.439582
86.936001	1.492991	0.736022	0.642393	0.439582
89.981000	1.499974	0.736022	0.642393	0.439582
92.940001	1.488231	0.736022	0.642075	0.439582
95.994001	1.502513	0.736022	0.642393	0.439582
98.944001	1.488548	0.736022	0.642075	0.439582
101.961000	1.487596	0.736022	0.642393	0.439582
104.981000	1.496483	0.736022	0.642393	0.439582
107.978000	1.496483	0.736022	0.642393	0.439582
110.936001	1.500609	0.736022	0.642393	0.439582
