LabVIEW Measurement	
Writer_Version	2
Reader_Version	2
Separator	Tab
Decimal_Separator	.
Multi_Headings	No
X_Columns	One
Time_Pref	Absolute
Operator	Mark
Date	2019/11/20
Time	18:55:06.6099996566772460937
***End_of_Header***	
	
Channels	6						
Samples	1	1	1	1	1	1	
Date	2019/11/20	2019/11/20	2019/11/20	2019/11/20	2019/11/20	2019/11/20	
Time	18:55:06.6099996566772460937	18:55:06.6839995384216308594	18:55:06.6799993515014648437	18:55:06.6760001182556152344	18:55:06.6719999313354492187	18:55:06.646999359130859375	
X_Dimension	Time	Time	Time	Time	Time	Time	
X0	0.0000000000000000E+0	0.0000000000000000E+0	0.0000000000000000E+0	0.0000000000000000E+0	0.0000000000000000E+0	0.0000000000000000E+0	
Delta_X	1.000000	1.000000	1.000000	1.000000	1.000000	1.000000	
***End_of_Header***							
X_Value	FieldPoint\FP @ COM1\cFP-AI-110 @2\Channel 2 (Formula Result)	FieldPoint\FP @ COM1\cFP-AI-110 @2\Channel 3 (Formula Result)	FieldPoint\FP @ COM1\cFP-AI-110 @2\Channel 4 (Formula Result)	FieldPoint\FP @ COM1\cFP-AI-110 @2\Channel 5 (Formula Result)	FieldPoint\FP @ COM1\cFP-AI-110 @2\Channel 6 (Formula Result)	FieldPoint\FP @ COM1\cFP-AI-110 @2\Channel 7 (Formula Result)	Comment
0.000000	-49.274433	-1017.306805	328.734249	690.556169	853.058636	886.701703
3.053000	-50.226595	-1018.258929	330.003798	688.017070	854.169488	888.288677
6.004000	-50.385289	-1016.672015	330.321193	692.936599	854.486883	887.177825
9.047000	-49.433127	-1017.624140	329.051644	691.349626	853.693426	887.336493
12.063000	-49.909208	-1018.576264	330.003798	695.316970	854.962945	887.336493
15.059000	-50.385289	-1017.782807	333.336383	675.638974	854.169488	887.812614
18.064001	-49.274433	-1017.148018	334.447235	675.797641	853.852093	887.177825
21.017001	-49.909208	-1018.417597	335.875481	671.988964	854.962945	887.653887
24.064000	-49.909208	-1017.306805	335.399389	680.241048	854.804277	888.923466
27.068000	-49.591821	-1016.513228	335.399389	678.495407	853.693426	887.177825
30.018001	-49.433127	-1017.624140	335.399389	678.178072	854.486883	889.240801
33.011000	-49.750514	-1016.354561	336.192876	674.686790	854.804277	888.764739
36.052000	-49.433127	-1016.037226	333.971143	676.908493	853.534698	888.606071
39.070000	-49.750514	-1018.100262	334.447235	681.828022	854.645550	889.240801
42.015000	-51.178757	-1017.148018	334.923297	683.732331	853.852093	885.908246
45.019001	-49.274433	-1016.830683	330.955952	685.160577	853.376031	885.273457
48.016000	-49.750514	-1017.782807	331.908137	687.064886	854.169488	886.066973
51.008000	-50.385289	-1017.782807	331.114650	688.017070	853.534698	884.956121
54.067000	-49.433127	-1016.830683	329.527736	692.619205	853.058636	884.956121
57.012000	-49.909208	-1017.782807	326.988608	691.825688	854.169488	885.273457
60.013000	-49.909208	-1017.148018	329.369038	692.143083	854.010820	885.908246
63.017001	-49.433127	-1016.037226	329.369038	696.745217	853.058636	885.590851
66.071001	-50.226595	-1017.148018	328.099489	696.110427	853.693426	886.701703
69.060000	-50.226595	-1016.354561	327.306002	701.029956	854.169488	886.543036
72.064001	-49.591821	-1016.037226	329.527736	701.029956	853.058636	885.590851
75.062000	-49.909208	-1017.465472	329.051644	702.299535	853.852093	886.543036
78.015000	-50.385289	-1015.719771	326.988608	709.123313	854.486883	886.066973
81.015000	-49.274433	-1016.513228	326.988608	704.997301	853.376031	885.273457
84.042000	-49.750514	-1017.306805	326.353848	703.092992	853.852093	886.860430
87.018001	-49.591821	-1015.719771	326.195151	704.203844	854.645550	887.812614
90.063000	-49.274433	-1015.719771	325.877756	706.742942	853.852093	887.812614
93.069001	-49.750514	-1016.830683	326.829940	706.108153	854.645550	888.129950
96.060000	-50.226595	-1016.354561	331.432045	696.745217	854.804277	887.177825
99.073001	-48.798349	-1015.719771	330.162495	699.601710	853.376031	887.336493
102.058000	-49.750514	-1016.672015	329.369038	699.601710	854.804277	887.812614
105.060000	-50.385289	-1016.672015	329.369038	704.997301	853.534698	885.114789
108.064000	-49.433127	-1015.561104	327.940792	706.108153	853.058636	885.749578
111.015000	-49.909208	-1016.830683	327.147305	705.790758	854.010820	887.019098
